*tel  numcsi     CsI V err CsI V    energy err energyESi (MeV) err ESi (MeV)
    0        0    0.150534  0.000664296     30.1341   0.0841014   35.6509   0.0374753
    0        0    0.190392  0.000664296     36.7181    0.203939   32.8524   0.0807924
    0        0     0.23025  0.000664296     43.3471     0.10559   30.4082   0.0363198
    0        0    0.269969  0.000657517     49.7197    0.109253    28.356    0.032989
    0        0    0.309568  0.000662362     56.5453    0.172058    26.431   0.0454261
    0        0    0.349426  0.00066612     63.7671    0.288982   24.6529   0.0666096
    0        0    0.389477  0.000668791     70.8129    0.209213    23.133   0.0424129
    0        0    0.429657  0.000670375     77.1187    0.239882   21.9248    0.043597
    0        0      0.4699  0.000670871     83.7087    0.250328   20.7932   0.0407696
    0        0     0.51014  0.000670281     90.6318    0.343081   19.7282   0.0500751
    0        0    0.550313  0.000668603     97.7044    0.404149   18.7526   0.0529794
    0        0    0.590354  0.000666023     104.841    0.308546   17.8671   0.0364256
    0        0    0.630255  0.000664158     111.803     1.83434   17.0858    0.198558
    0        0    0.670076  0.000663383      118.72    0.373135   16.3799   0.0364468
    0        1    0.130291  0.000687402     27.7508    0.356879   36.7621    0.171585
    0        1    0.171535  0.000687402     34.5835    0.154549   33.7156   0.0640312
    0        1    0.212779  0.000687402     41.2834    0.239565   31.1328   0.0861589
    0        1    0.254023  0.000687402     47.9707    0.247461   28.8929    0.077514
    0        1    0.295284  0.000687575     54.8891    0.162292   26.8746   0.0442423
    0        1    0.336531  0.000687345     61.4446    0.110531   25.1985    0.026559
    0        1    0.377768  0.00068721     68.4704    0.324442    23.617   0.0686505
    0        1    0.418999  0.00068717     74.8228    0.156062   22.3495   0.0294804
    0        1     0.46023  0.000687227     82.2749     0.24073    21.029   0.0401366
    0        1    0.501468  0.000687379     89.6123    0.419162   19.8778   0.0621991
    0        1    0.542717  0.000687627     96.3262     1.09151   18.9346    0.146831
    0        1    0.583984  0.000687953     104.242    0.760852   17.9379    0.090887
    0        1    0.625264  0.000687962     110.574     1.24946   17.2183    0.137001
    0        1     0.66653  0.000687488     117.772     0.59922   16.4728   0.0593548
    0        2    0.159684  0.000693427     30.1583     0.34554    35.639    0.159989
    0        2     0.20129  0.000693427     37.1391     0.23948   32.6867   0.0940633
    0        2    0.242896  0.000693427      43.311    0.204278   30.4206   0.0703991
    0        2    0.284345  0.000690318     50.3742    0.145907   28.1599   0.0434955
    0        2    0.325847  0.000693047     56.4377    0.674602   26.4594    0.179341
    0        2      0.3675  0.000695359     63.3899    0.233619   24.7399   0.0541994
    0        2    0.409279  0.000697254     70.7976    0.261475   23.1361    0.053045
    0        2     0.45116  0.000698731     76.9942    0.353971   21.9474   0.0645294
    0        2    0.493117  0.00069979     83.8245     0.25248   20.7744   0.0410422
    0        2    0.535126  0.000700432     91.0108     1.03054   19.6732    0.150332
    0        2    0.661201  0.000699682     113.339    0.292944   16.9233   0.0307276
    0        2    0.703148  0.000698449     121.266    0.781808   16.1358   0.0740724
    0        3    0.100031  0.00070454     21.7752    0.136469   39.8187   0.0751837
    0        3    0.142332  0.000705437     28.6698    0.110544   36.3275   0.0511948
    0        3    0.184678  0.000706055     35.4254    0.370606   33.3705    0.151163
    0        3    0.227052  0.000706394     42.1372    0.106616   30.8292   0.0376121
    0        3    0.269439  0.000706454     49.3639     0.23669   28.4637   0.0720699
    0        3    0.354182  0.000705737     62.6316    0.146858   24.9167   0.0345261
    0        3    0.396505  0.00070496     69.8753    0.549131   23.3243    0.113533
    0        3    0.438775  0.000704153      76.886    0.321416   21.9671   0.0586873
    0        3     0.48103  0.000704572     83.8387    0.317817   20.7721   0.0516803
    0        3    0.523351  0.000706391     90.7914      0.3932    19.705    0.057269
    0        3    0.565822  0.000709611     97.0898     2.34121   18.8333    0.314301
    0        3    0.608507  0.000712912     107.291    0.816258   17.5834   0.0934098
    0        3    0.651318  0.00071368      111.47      0.5581   17.1215   0.0601572
    0        3    0.694097  0.000711843     119.704    0.559297   16.2846   0.0539979
    1        1    0.113222  0.000658759     24.1141   0.0701798   38.2732   0.0356483
    1        1    0.152748  0.000658759     30.3956    0.165883   35.2438     0.07465
    1        1    0.192273  0.000658759     36.5605   0.0726074   32.6386   0.0286806
    1        1    0.231799  0.000658759       42.69   0.0898633    30.371   0.0311627
    1        1    0.271474  0.000665252     49.0382    0.215699   28.3102   0.0657032
    1        1    0.311246  0.000660561     55.8961    0.202148   26.3625   0.0537132
    1        1    0.350767  0.000656924     62.2927    0.335161   24.7665   0.0788956
    1        1    0.390101  0.00065434     68.5308    0.407033    23.384   0.0854785
    1        1    0.429311  0.000652811     75.1566    0.277477   22.0761   0.0517797
    1        1     0.46846  0.000652336     81.6368    0.542328   20.9339   0.0908918
    1        1    0.507612  0.000652916     87.8839     0.39293    19.943   0.0594287
    1        1     0.54683  0.000654549     94.7736    0.425518   18.9583   0.0578269
    1        1    0.586176  0.000657124     102.198    0.460151   18.0065   0.0560128
    1        1    0.625665  0.000659006     108.599    0.681167   17.2644   0.0758062
    1        1    0.665231  0.000659652     116.221    0.355281   16.4629   0.0355518
    1        1    0.704799  0.000659062     121.458    0.565659   15.9578   0.0529121
    1        2    0.138383  0.000708399     27.7496    0.122849     36.47   0.0575126
    1        2    0.180795  0.000705366     34.8097    0.146769   33.3427   0.0602272
    1        2    0.223041  0.000702916     41.0316   0.0827365   30.9557   0.0297125
    1        2    0.265158  0.000701052     47.9881    0.154251   28.6328   0.0479733
    1        2    0.307181  0.000699772     54.5993   0.0852908   26.7108   0.0232198
    1        2    0.349144  0.000699076     61.0839     0.13323   25.0534   0.0320208
    1        2    0.391082  0.000698965     68.0198     0.18301   23.4914   0.0387116
    1        2     0.43303  0.000699368      74.902     0.14405   22.1236   0.0269704
    1        2    0.475003  0.000699668     80.6931    0.177302   21.0926   0.0300934
    1        2    0.516985  0.000699719      88.654    0.301816   19.8276   0.0450612
    1        2    0.558964  0.000699522     96.1725    0.159038   18.7708   0.0211163
    1        2    0.600925  0.000699212     102.754    0.237156   17.9393   0.0285892
    1        2    0.642877  0.000699263     109.488    0.352005   17.1666   0.0386026
    1        2    0.684844  0.000699716      117.04    0.262894   16.3816   0.0260044
    1        3    0.139921  0.000687402     29.1417    0.173248   35.8183   0.0785116
    1        3    0.181165  0.000687402     35.8807     0.12962   32.9089   0.0519776
    1        3    0.222409  0.000687402      42.598    0.070486   30.4029   0.0244862
    1        3    0.263724  0.000695647     49.4733   0.0975583   28.1785   0.0294226
    1        3    0.305293  0.000690072     56.1722   0.0715498   26.2895    0.018884
    1        3    0.346563  0.000685759     63.0554    0.132067   24.5888   0.0305882
    1        3    0.387613  0.000682708     69.8344    0.202636   23.1144   0.0414921
    1        3    0.428516  0.000680919     76.8931    0.130419   21.7576   0.0235927
    1        3    0.469349  0.000680391     84.4715    0.119639   20.4718    0.019074
    1        3    0.510188  0.000681126      90.784    0.230221   19.5156   0.0332199
    1        3    0.551108  0.000683122      98.555    0.199021   18.4604   0.0255082
    1        3    0.592183  0.000686103     106.102    0.321288   17.5459   0.0369415
    1        3    0.633412  0.000687983      112.64    0.323526   16.8291   0.0339662
    1        3    0.674709  0.000688333     119.547    0.303668   16.1381   0.0290705
    2        1    0.184002  0.000699565      37.311    0.297166   31.9828    0.115041
    2        1    0.225976  0.000699565     43.7229    0.299557   29.6712    0.101145
    2        1    0.267941  0.000699017     50.8304    0.263538   27.4467   0.0768359
    2        1    0.309896  0.000699448     58.2591     1.05092   25.4386    0.266598
    2        1    0.351872  0.000699737     65.5004    0.683719   23.7399    0.150707
    2        1    0.393861  0.000699885     72.0792    0.188011   22.3818   0.0366298
    2        1    0.435855  0.000699891     80.0479    0.428094   20.9344   0.0728476
    2        1    0.477845  0.000699755     88.6062    0.305342   19.5809   0.0451346
    2        1    0.519823  0.000699478     94.5645    0.230951    18.742   0.0310975
    2        1     0.56178  0.000699059     104.509    0.772831      17.5   0.0901651
    2        1    0.603711  0.000698711     110.081     1.05623   16.8784    0.114124
    2        1    0.645639  0.000699028     117.407    0.677645   16.1307   0.0661087
    2        2    0.102806  0.000691354     22.0927   0.0982078   38.9422    0.052739
    2        2    0.144201  0.000688565     28.2805    0.252423    35.834    0.117826
    2        2    0.185453  0.000686631     35.6626    0.143764   32.6303   0.0575654
    2        2    0.226615  0.000685554     41.3787    0.364523     30.48    0.129401
    2        2    0.267738  0.000685333     47.8112    0.184894   28.3521    0.057281
    2        2    0.308872  0.000685969      54.058    0.145638   26.5379   0.0397601
    2        2     0.35007  0.000687461     60.9812    0.180138   24.7726   0.0430115
    2        2    0.391383  0.000689809      67.048    0.670888   23.4057    0.143712
    2        2     0.43286  0.000692787     74.5463     1.33596   21.9122    0.251771
    2        2    0.516151  0.000694202     87.9974    0.638294   19.6711   0.0955271
    2        2    0.557753  0.000692174     95.1527    0.798995   18.6633    0.107082
    2        2    0.599186  0.000688931     103.733    0.949342   17.5906    0.112148
    2        2    0.640454  0.000686871     109.641    0.437405   16.9257   0.0473459
    2        2     0.68164  0.00068624     114.427      0.4421   16.4259   0.0448175
    2        3    0.144431  0.000693433     30.1686    0.630853   34.9668    0.286897
    2        3    0.186037  0.000693433     36.7979    0.234898   32.1819   0.0918798
    2        3    0.227643  0.000693433     42.7964    0.329372   29.9861    0.113432
    2        3    0.269381  0.000700741     49.7692    0.113878   27.7586   0.0338713
    2        3    0.311261  0.000695389     57.0076    0.432485   25.7567    0.111738
    2        3    0.352857  0.00069128     63.3935    0.104682   24.2105   0.0238662
    2        3    0.394243  0.000688416      70.549    0.194408   22.6835   0.0389206
    2        3    0.435494  0.000686795      77.429    0.253191   21.3884   0.0449731
    2        3    0.476684  0.000686419     84.4375    0.785033   20.2166    0.124586
    2        3    0.517889  0.000687286     91.4032    0.371635   19.1774   0.0525967
    2        3    0.559182  0.000689396     99.0876    0.321095   18.1544   0.0404142
    2        3    0.600632  0.000692228     105.624    0.606256   17.3717   0.0695282
    2        3    0.642223  0.000693955     113.268    0.532262    16.544   0.0548447
    3        0   0.0973605  0.000669932     21.2649   0.0925029   39.3156    0.051416
    3        0    0.137348  0.000667606     27.9042     0.24989   35.9374    0.116746
    3        0    0.177482  0.000670161     34.4842    0.115615   33.0395   0.0474062
    3        0    0.217756  0.000672275     40.9233    0.227183    30.577    0.081208
    3        0    0.258145  0.000673948     47.3471    0.239968   28.4344   0.0749885
    3        0     0.29862  0.000675179     54.1497    0.207298    26.454   0.0564356
    3        0    0.339156  0.00067597     60.5155    0.291724   24.8278   0.0702315
    3        0    0.379727  0.000676319     66.7662    0.194231    23.412   0.0415669
    3        0    0.420305  0.000676229     73.4074    0.229845    22.075   0.0436819
    3        0    0.460871  0.000675944     80.5462    0.412067   20.8012   0.0693936
    3        0    0.501418  0.000675622     87.4703    0.356287    19.703   0.0535441
    3        0    0.541945  0.000675263     93.8062    0.314737   18.7994   0.0428141
    3        0     0.58245  0.000674882     100.658    0.269313   17.9162   0.0330389
    3        0     0.62294  0.000674895     106.754    0.449296   17.2019   0.0505426
    3        0    0.663448  0.000675497     114.214     1.34333   16.4074    0.137112
    3        1    0.145818  0.000693433     28.4377   0.0988122   35.6866   0.0458203
    3        1    0.187424  0.000693433     34.7772    0.131831   32.9199   0.0537257
    3        1    0.270625  0.000692934     48.3436    0.522158   28.1269    0.160327
    3        1    0.312214  0.000693339     54.3503    0.310587   26.3996   0.0843068
    3        1    0.353823  0.000693609     60.9157    0.421473   24.7321     0.10082
    3        1    0.395444  0.000693744     68.0406    0.153307   23.1429   0.0320431
    3        1    0.437069  0.000693744     73.2926     2.05758   22.0968    0.398208
    3        1    0.478691  0.000693608     81.0554    0.524198   20.7161   0.0876127
    3        1      0.5203  0.000693337     87.2671    0.509654   19.7335   0.0769386
    3        1    0.561889  0.000692932     95.3007     1.15585   18.5989    0.154665
    3        1    0.603452  0.000692596     103.432    0.414855   17.5833   0.0489284
    3        2     0.15275  0.000693433     40.0985     0.23892   30.8737   0.0869274
    3        2    0.194356  0.000693433     48.8191    0.644538   27.9824    0.196238
    3        2    0.235963  0.000693433     57.2291    0.176239   25.6422   0.0451538
    3        2    0.277779  0.000699512      66.732    0.942907   23.4193    0.203307
    3        2    0.319595  0.000694462     75.5995    0.736764   21.6671    0.135365
    3        2    0.361144  0.000690637     85.2142    0.479195   20.0473   0.0747598
    3        2    0.484924  0.000686512     112.649    0.471692   16.5673   0.0488897
    3        3     0.13161  0.000659898      26.689    0.148094   36.5166   0.0725358
    3        3    0.211311  0.000667739     39.1539   0.0761006     31.22   0.0282031
    3        3    0.291676  0.000670927     51.7897    0.147033   27.1105   0.0419395
    3        3    0.331933  0.000670776     58.2842    0.157307   25.3751   0.0394753
    3        3    0.372146  0.000669461     65.1506    0.119624   23.7623   0.0263541
    3        3    0.412247  0.000666982     70.6796    0.286751    22.605   0.0572184
    3        3    0.452183  0.000664436     78.0651    0.237439   21.2264   0.0416362
    3        3     0.49201  0.000663355     84.4658    0.319159   20.1643   0.0503363
    3        3    0.531816  0.000663748     90.8814    0.897933   19.2054    0.128398
    3        3    0.611701  0.000668107     103.432     1.40391   17.5833     0.16677
    4        0     1.24223  0.000719399     31.0364    0.416614   34.8838    0.186036
    4        0      1.2854  0.000719399     38.3764    0.140783   31.8699   0.0534591
    4        0     1.32856  0.000719399     46.1371    0.128454   29.1564   0.0414274
    4        0     1.37172  0.000719399     53.3393    0.177119   26.9988   0.0493998
    4        0     1.41489  0.000719399     61.3039    0.318404   24.9449     0.07622
    4        0     1.45805  0.000719399     68.6183       1.244   23.3127    0.262364
    4        0     1.50122  0.000719399     77.1152    0.132968   21.6675   0.0239187
    4        0     1.54438  0.000719399     85.2654    0.498731   20.2987   0.0785842
    4        0     1.58754  0.000719399     92.5158    0.272418   19.2241   0.0382065
    4        0     1.63071  0.000719399     101.314    0.663461   18.0713   0.0817598
    4        0     1.67387  0.000719399      108.12     1.07578   17.2763    0.120611
    4        0     1.71704  0.000719399     117.085    0.802553   16.3377   0.0794547
    4        1    0.134229  0.000680943     29.2187     0.16037   35.7098   0.0721887
    4        1    0.174922  0.000675666     36.2575    0.497054   32.6919    0.198284
    4        1    0.215346  0.00067201     43.0616    0.176564   30.1792   0.0607348
    4        1    0.255598  0.000669975     50.1743    0.201038   27.9084   0.0597514
    4        1    0.295776  0.000669562     57.0053    0.276732    26.014   0.0719026
    4        1    0.335978  0.000670771     63.8383    0.205425   24.3542   0.0468465
    4        1    0.376299   0.0006736      71.329    0.554787   22.7609    0.110772
    4        1    0.416808  0.00067653     78.5604    0.146276    21.411   0.0256763
    4        1    0.457453  0.000678105     85.8339      0.5684   20.2099   0.0887911
    4        1    0.498153  0.000678323     92.5709    0.446155   19.2164   0.0626024
    4        1    0.538829  0.000677511     101.494    0.396376   18.0493   0.0486234
    4        1    0.579462  0.00067695     107.203    0.234224   17.3789   0.0264434
    4        1    0.620071  0.000676769     116.283    0.391083   16.4171   0.0390278
    4        2    0.169122  0.000842248     33.6014    0.106471   33.7763   0.0447811
    4        2    0.219657  0.000842248     41.4406    0.126806   30.7453   0.0450995
    4        2    0.270195  0.000842294     48.8675    0.210249   28.3012   0.0641726
    4        2     0.32073  0.000842215     57.6206    0.516639   25.8555    0.132952
    4        2    0.371262  0.000842187     65.1903    0.580017   24.0503    0.129443
    4        2    0.421793  0.000842211      73.524    0.464131   22.3331   0.0890868
    4        2    0.472328  0.000842285     80.5703    0.346943   21.0645   0.0589805
    4        2    0.522868  0.000842406     89.8439    0.314741   19.6059     0.04603
    4        2    0.573413  0.000842368     98.8489    0.488954   18.3792   0.0624037
    4        2    0.623947  0.000842064     106.541    0.291056   17.4539   0.0331823
    4        2    0.674457  0.000841622     116.048    0.629011   16.4406   0.0630673
    4        2     0.72496  0.000841999     121.291    0.715669   15.9348   0.0670108
    4        3          -1           0      40.432    0.176839   31.1074   0.0642906
    4        3          -1           0     48.2394   0.0993624   28.4937    0.030684
    4        3          -1           0     55.7311    0.729733   26.3483    0.195227
    4        3          -1           0     64.0191     3.60501   24.3131    0.845957
    4        3          -1           0     71.4963    0.438114   22.7277   0.0871285
    4        3          -1           0     78.7317    0.739528    21.381     0.13009
    4        3          -1           0      88.067    0.357568   19.8688   0.0538036
    4        3          -1           0     94.5539    0.302039   18.9433   0.0410644
    4        3          -1           0     102.405    0.176509   17.9386   0.0213327
    4        3          -1           0      117.23    0.810961   16.3235   0.0801373
    5        0    0.134192  0.000776006     29.4045   0.0736135   35.5316   0.0335861
    5        0    0.180753  0.000776006     36.9323    0.102726   32.3371   0.0401573
    5        0    0.227313  0.000776006     44.4162   0.0617333   29.6363   0.0205799
    5        0    0.273889  0.000776171     52.1092   0.0335864   27.2657  0.00956453
    5        0     0.32045  0.000775872     59.8419   0.0267593   25.2232  0.00655082
    5        0    0.366997  0.000775751     67.5062    0.106617   23.4754   0.0226537
    5        0    0.413543  0.000775808      75.285    0.231597   21.9337     0.04292
    5        0    0.460098  0.000776044     82.8926    0.115656   20.6138   0.0188357
    5        0    0.506672  0.000776457     91.0576    0.166138   19.3692   0.0237513
    5        0    0.553269  0.000776664     98.4936    0.121342   18.3659   0.0154845
    5        0    0.599854  0.000775987     106.772    0.271461   17.3718   0.0307558
    5        0    0.646371  0.000774411      114.67    0.275912    16.526   0.0280349
    5        1     0.12622  0.000726992      23.932   0.0980707   38.1984   0.0501124
    5        1    0.169839  0.000726992     29.9329   0.0520509    35.291   0.0244475
    5        1    0.213459  0.000726992     36.2202   0.0810682   32.6173   0.0321751
    5        1    0.256813  0.000719038     42.3481    0.140973   30.3404   0.0491192
    5        1    0.300207  0.00072713     48.1903    0.168067   28.4268   0.0518899
    5        1    0.344011  0.000732674      54.326    0.142523   26.6482   0.0388885
    5        1    0.388072  0.000735671     60.4297    0.197831   25.0801   0.0479857
    5        1    0.432239  0.000736119     66.7567    0.185943   23.6356   0.0400842
    5        1    0.476357  0.00073402     73.4712    0.332183   22.2745   0.0635939
    5        1    0.520274  0.000729434     79.2361    0.150945   21.2271   0.0261337
    5        1    0.563923  0.000726035     85.8536    0.194589   20.1435   0.0302193
    5        1    0.607466  0.000725975     92.1817    0.183932   19.2101   0.0258421
    5        1    0.651105  0.000729252     98.5886    0.226858   18.3538   0.0289303
    5        1    0.694994  0.000733539     105.107    0.383767   17.5624   0.0445579
    5        1    0.739096  0.000736308     111.857     0.27219   16.8168   0.0287329
    5        1    0.783318  0.000737557     117.819    0.243802   16.2133   0.0237469
    5        2    0.153049  0.000803074     27.7312   0.0764726   36.3139   0.0356749
    5        2    0.201234  0.000803074      34.103   0.0700705    33.476   0.0290901
    5        2    0.249511  0.000808913     40.1497    0.191181   31.1232   0.0698137
    5        2    0.297885  0.000803632     46.7982   0.0835936    28.862   0.0265343
    5        2    0.345971  0.000799326     53.0751     0.18086   26.9933   0.0506102
    5        2    0.393828  0.000795994     59.9229    0.125874   25.2034   0.0308054
    5        2    0.441513  0.000793638     65.6837    0.214473   23.8688   0.0471646
    5        2    0.489085  0.000792256     72.3656    0.171114   22.4876   0.0333511
    5        2    0.536605  0.000791941     78.8452     0.14391   21.2949   0.0250781
    5        2    0.584152  0.000793285     85.4774    0.148438    20.202    0.023183
    5        2    0.631832  0.000796396     92.0713    0.107075   19.2256   0.0150619
    5        2    0.679745  0.00080074      98.992    0.196824   18.3026   0.0249443
    5        2    0.727891  0.00080394     105.345    0.264487   17.5348   0.0305783
    5        2    0.776187  0.000805713     111.926     0.22212   16.8095   0.0234173
    5        2    0.824593  0.000809404     118.863      0.1731   16.1124   0.0166214
    5        3    0.153917  0.000690648     20.6924    0.107906   39.9402    0.060058
    5        3    0.195356  0.000690648     24.7699   0.0791933   37.7679   0.0399001
    5        3    0.236795  0.000690648     29.0636   0.0726649   35.6888   0.0340586
    5        3    0.277819  0.000687285     32.9522    0.112282   33.9614   0.0470778
    5        3    0.319242  0.000693241     36.5266   0.0839246   32.4962   0.0330872
    5        3    0.360961  0.000697108     40.7065   0.0690091   30.9215    0.024869
    5        3     0.40285  0.000698887     44.5782   0.0695814   29.5824   0.0231193
    5        3    0.444785  0.000698578     48.6054   0.0654675   28.2994   0.0200197
    5        3    0.486639  0.00069618     52.5831   0.0710805   27.1314   0.0200658
    5        3     0.52829  0.000691986     56.8677    0.083853   25.9726   0.0217568
    5        3    0.569723  0.00068954     61.1847   0.0183022   24.8986  0.00436925
    5        3    0.611092  0.000689889     64.7782    0.121303   24.0692   0.0271024
    5        3    0.652564  0.000693033     68.4349   0.0503849   23.2799   0.0105237
    5        3    0.694263  0.00069675      72.729    0.217712   22.4171   0.0421802
    5        3     0.73614  0.00069893     76.8278     0.23654   21.6521     0.04269
    5        3    0.778103  0.000699571     80.5737    0.139391   20.9984   0.0235942
    5        3    0.820091  0.000701032     84.6389    0.305667   20.3337   0.0484533
    5        3    0.862374  0.000709838     88.9657    0.183049   19.6728   0.0270438
    5        3    0.905413  0.00072637     93.4042    0.249739   19.0402   0.0344501
    5        3    0.949672  0.000750626     97.6169    0.320059   18.4784   0.0414382
    5        3    0.995615  0.000782608     101.558    0.316866   17.9839    0.038705
    5        3      1.0437  0.000822314     105.183    0.327195   17.5536   0.0379318
    5        3      1.0921  0.00078485       109.8    0.197291   17.0366   0.0214137
    5        3     1.13919  0.00078485     113.692    0.184806   16.6258   0.0190147
    5        3     1.18628  0.00078485     117.357    0.200905   16.2583    0.019683
    6        0    0.112303  0.000766434      26.554    0.191791   36.4891   0.0932231
    6        0    0.158319  0.000767388     34.5752    0.111611   32.9115   0.0455993
    6        0     0.20438  0.000767913     42.4963    0.294727   29.9395    0.101788
    6        0     0.25046  0.000768009     50.3358    0.261693   27.4496   0.0767944
    6        0    0.296533  0.000767676     58.1662    0.133112   25.3281   0.0334015
    6        0    0.342573  0.000766913     66.5906    0.218806   23.3774   0.0468757
    6        0    0.388555  0.000765821       74.22      0.1205   21.8535   0.0224977
    6        0    0.434505  0.000766205     82.8122    0.381172   20.3633   0.0616425
    6        0    0.480542  0.000768738     91.4606    0.181811   19.0623   0.0255496
    6        0    0.526792  0.000773245     99.9188    0.326283    17.949   0.0403699
    6        0    0.573296  0.000776517     107.552    0.216521   17.0572   0.0239765
    6        0    0.619924  0.000777361     116.374    0.498914    16.139   0.0490381
    6        1    0.107633  0.000758947     23.9472    0.305362   37.7929    0.158927
    6        1     0.15317  0.000758947     31.2894   0.0905675    34.304   0.0410893
    6        1    0.198707  0.000758947     38.1884    0.134507   31.4928   0.0508475
    6        1    0.244294  0.000764738     45.3007   0.0828028   29.0019   0.0269007
    6        1    0.290039  0.000760156     53.0727    0.110238   26.6703   0.0305689
    6        1    0.335533  0.000756356      60.268      0.2577   24.8119   0.0621745
    6        1    0.425951  0.000751104     75.0484    0.207116   21.7001   0.0381476
    6        1    0.470971  0.000749651     83.1936    0.320474    20.302   0.0514748
    6        1    0.515926  0.000748981     89.9605    0.486893   19.2753   0.0702199
    6        1    0.560871  0.000749429     97.6422    0.317953   18.2348   0.0406933
    6        1    0.605885  0.000751276     105.211     0.38865   17.3204   0.0445465
    6        1     0.65105  0.000754524     113.683    0.709331   16.4075   0.0723995
    6        2   -0.133532  0.000734728      30.778    0.696052   34.5298    0.311992
    6        2  -0.0894481  0.000734728     38.6693    0.186171   31.3122   0.0696918
    6        2  -0.0453644  0.000734728     46.3046    0.178228   28.6794   0.0567614
    6        2  -0.00128074  0.000734728     53.7674    0.130984   26.4792   0.0358292
    6        2   0.0428029  0.000734728     61.5807    0.162125   24.4999   0.0381157
    6        2   0.0868866  0.000734728     69.3034    0.265431   22.8115   0.0541483
    6        2    0.134995  0.000801951     76.7988    0.470456   21.3831   0.0842574
    6        2    0.180794  0.000723365      85.209    0.524127   19.9844   0.0815923
    6        2    0.221877  0.00064478     92.1577    0.925689    18.965    0.129434
    6        2    0.258246  0.000566194     101.497    0.313203   17.7564   0.0378577
    6        2    0.289899  0.000487608     109.822    0.610675   16.8102   0.0656861
    6        2    0.316838  0.000409022     118.101     1.07655   15.9718     0.10381
    6        3     0.12622  0.000726992      27.827    0.430169   35.8803    0.204476
    6        3    0.169839  0.000726992      35.711     0.15027   32.4536   0.0599436
    6        3    0.213459  0.000726992     43.4101    0.195146   29.6279   0.0660423
    6        3    0.257086  0.000727228     50.9962    0.249858   27.2576   0.0723421
    6        3    0.300712  0.00072697     58.6787    0.276832   25.2003   0.0688753
    6        3    0.344325  0.000726828     67.7124     1.81632     23.14    0.386848
    6        3    0.387934  0.000726804     74.8843    0.848919   21.7303    0.157682
    6        3    0.431544  0.000726896     81.8314    0.248347   20.5227   0.0407736
    6        3    0.475163  0.000727106      90.185     0.17792   19.2431   0.0255083
    6        3    0.518799  0.000727429     97.9256    0.267789   18.1987   0.0341161
    6        3    0.562448  0.00072744     105.984    0.292368   17.2325   0.0331193
    6        3     0.60608  0.000726858      113.63    0.902866   16.4129   0.0923436
    7        0    0.164512  0.000767382     34.7033    0.212956   32.3138   0.0860433
    7        0    0.210555  0.000767382     42.0572     1.31419   29.5739    0.458153
    7        0    0.256579  0.000766784     50.3576   0.0949917   26.9562   0.0274784
    7        0    0.302608  0.000767458     58.3661    0.249432   24.8186    0.061587
    7        0    0.348667  0.00076781     65.0741    0.304639   23.2682   0.0662265
    7        0    0.394738  0.000767841     73.8905    0.249732   21.5031   0.0462519
    7        0    0.486838  0.000766937     90.2746    0.884947   18.8601    0.125339
    7        0     0.53283  0.000766166     96.1846    0.324898    18.066   0.0418036
    7        0     0.62486  0.000768759     111.617     1.04177   16.2939    0.107734
    7        1    0.124766  0.000726992     25.7175   0.0927525   36.3175    0.045691
    7        1    0.168385  0.000726992     32.4545    0.123766   33.2408   0.0535394
    7        1    0.212005  0.000726992     39.6356    0.175136   30.4283   0.0635377
    7        1    0.255846  0.000734397     46.2007    0.247182   28.2104   0.0780409
    7        1    0.299685  0.000727127     53.7063    0.179148   26.0206   0.0484709
    7        1    0.343151  0.000722017     60.2493    0.780689   24.3631    0.186819
    7        1    0.386374  0.000719065     66.9168    0.321119   22.8755   0.0674749
    7        1    0.429484  0.000718271     75.5136     1.98214   21.2074    0.362271
    7        1     0.47261  0.000719637     82.1768    0.554247   20.0764   0.0892933
    7        1    0.515881  0.000723157     87.8845    0.636295   19.2027   0.0934343
    7        2    0.238181  0.000729855     45.9811    0.381165   28.2797    0.121069
    7        2    0.282274  0.000739623     52.9307    0.264719   26.2317   0.0728063
    7        3    0.139512  0.000758947     28.6622    0.459659   34.9202    0.212116
    7        3    0.185049  0.000758947     36.5643    0.464387   31.5785    0.180719
    7        3    0.230586  0.000758947     43.3338   0.0894648    29.141   0.0299577
    7        3    0.276533  0.000763124     50.9448    0.321476   26.7875   0.0920993
    7        3    0.322091  0.000755817     58.8318    0.371338   24.7044   0.0909704
    7        3    0.367291  0.000751219     65.1946    0.184725   23.2421   0.0400225
    7        3    0.412295  0.000749329     73.4523    0.631689   21.5844    0.118296
    7        3    0.457266  0.000750148     81.1762    0.181651   20.2382   0.0296664
    7        3    0.502365  0.000753675     87.9784     0.17577    19.189   0.0256762
    7        3    0.547733  0.000758343     96.8353    0.995633   17.9829    0.127494
    7        3    0.593305  0.000760252     103.319    0.432436   17.1975   0.0500867
    8        0      0.5622  0.000683808     30.9419    0.161899   35.2843    0.074308
    8        0    0.603229  0.000683808     37.7149   0.0773418   32.4625   0.0299527
    8        0    0.644257  0.000683808     44.5406    0.136812   30.0031   0.0459262
    8        0    0.685306  0.000684038     51.5683    0.142622   27.8087   0.0415057
    8        0    0.726338  0.000683695     58.6068    0.111832   25.8983   0.0283571
    8        0    0.767353  0.000683518       65.23    0.231463   24.3211   0.0519016
    8        0    0.808363  0.000683509     72.0959     0.17319   22.8763   0.0343118
    8        0    0.849377  0.000683667     79.0522    0.154196   21.5798   0.0271033
    8        0    0.890406  0.000683992     86.3728    0.141142   20.3694   0.0219993
    8        0    0.931459  0.00068448     93.4091    0.189166   19.3325   0.0264196
    8        0    0.972535  0.000684563     100.719    0.272487   18.3672   0.0341325
    8        0     1.01359  0.000683818     107.453    0.245883    17.565   0.0279621
    8        0     1.05458  0.000682244     114.884    0.265855   16.7633   0.0273054
    8        0     1.09546  0.000680846     121.992    0.217415   16.0677   0.0203333
    8        1    0.190372  0.000664078     36.1069   0.0578228   33.0956   0.0231686
    8        1    0.230216  0.000664078     42.2404   0.0539797   30.7929   0.0189906
    8        1    0.270068  0.000664156     48.9296   0.0903531   28.5962   0.0277166
    8        1    0.309914  0.000664045     55.1942    0.151803   26.7918    0.041138
    8        1    0.349754  0.000663986      61.946       0.129   25.0787   0.0307145
    8        1    0.389593  0.000663981     68.6085    0.104341   23.5879   0.0219804
    8        1    0.429433  0.00066403     74.6894   0.0837624   22.3747   0.0158489
    8        1    0.469278  0.000664131     81.9548    0.128248   21.0824   0.0214745
    8        1     0.50913  0.000664285     88.5642    0.174884   20.0341   0.0263323
    8        1    0.548991  0.000664365     94.6455    0.707351   19.1617   0.0973242
    8        1    0.588848  0.000664171     101.659    0.185056   18.2505   0.0228507
    8        1    0.628686   0.0006637     109.028    0.422099   17.3882   0.0470149
    8        1    0.668488  0.000663066     115.809    0.210337    16.669   0.0213285
    8        1    0.708272  0.000663262     122.703    0.248226   16.0016   0.0230074
    8        2    0.189691  0.000734728      37.589    0.128628   32.5113   0.0499788
    8        2    0.233775  0.000734728     44.7466    0.107769   29.9342   0.0360104
    8        2    0.277825  0.000734466     51.8827     0.09934   27.7176   0.0287214
    8        2     0.32191  0.000735006     59.0262    0.137125   25.7925   0.0345044
    8        2    0.366019  0.000735234     66.5659    0.339848   24.0258   0.0744432
    8        2    0.410132  0.000735149     73.9103    0.153896    22.523   0.0295339
    8        2    0.454231  0.000734751     81.3765    0.228995   21.1796   0.0387454
    8        2    0.498296  0.000734039     88.5708    0.160431   20.0331   0.0241517
    8        2    0.542315  0.000733405     95.5756    0.370057   19.0353   0.0500735
    8        2    0.586335  0.000734211      103.89    0.178355   17.9798   0.0213247
    8        2     0.63045  0.000736575     111.211    0.331967   17.1493   0.0358543
    8        2    0.674749  0.000740152      119.07    0.260832   16.3458   0.0253437
    8        3    0.192143  0.000767382     38.1433      0.1596   32.2975    0.061301
    8        3    0.238186  0.000768757     45.7978   0.0886496   29.5871   0.0289822
    8        3    0.284302  0.000768297     53.2881      0.1379   27.3173   0.0387881
    8        3    0.330364  0.000766904       61.68     0.41921   25.1421    0.100587
    8        3    0.376314  0.000764576     68.8652    0.137387    23.534   0.0288167
    8        3    0.422097  0.000761314     76.7921    0.162745   21.9842   0.0297236
    8        3    0.467657  0.000757118     85.0748    0.131863   20.5736   0.0209837
    8        3    0.512937  0.000751987     92.6569    0.139704    19.438   0.0197302
    8        3    0.557934  0.000748646     100.677    0.184812   18.3725   0.0231493
    8        3    0.602871  0.000750058     109.525    0.642403   17.3331   0.0711678
    8        3    0.648032  0.000756225      117.55    0.425464   16.4947   0.0422183
    9        0    0.176024  0.000690641     36.8361   0.0633675   32.7886   0.0249975
    9        0    0.217463  0.000690641     43.7933   0.0395173   30.2392   0.0134544
    9        0    0.258887  0.000690288     50.9984   0.0651896   27.9597   0.0191678
    9        0    0.300316  0.000690672     57.9591   0.0446202   26.0486   0.0114444
    9        0    0.341764  0.000690891     65.1636     0.10787   24.3219   0.0241821
    9        0     0.38322  0.000690946     72.8743   0.0966607     22.71   0.0188711
    9        0    0.424674  0.000690836     79.9907    0.126952   21.4036   0.0219499
    9        0    0.466117  0.000690561     87.3864    0.153168   20.2007   0.0234816
    9        0    0.507538  0.000690121     95.0553    0.151378   19.0942   0.0206017
    9        0    0.548934  0.000689869     102.603    0.145743   18.1239    0.017737
    9        0    0.590339  0.000690428     109.949     0.19343   17.2759    0.021227
    9        0    0.631801  0.000691808     117.572    0.194358   16.4824    0.019241
    9        1    0.152861  0.000677102      32.458    0.104801   34.5998    0.044134
    9        1    0.193488  0.000677102     39.0855    0.250571   31.9229   0.0943855
    9        1    0.234114  0.000677102     46.2985   0.0777621   29.4083   0.0251491
    9        1    0.274555  0.000675471     53.5294   0.0709267   27.2344   0.0198341
    9        1    0.315172  0.000678241      60.528    0.148114   25.4059   0.0362092
    9        1    0.355914  0.000679618     68.0281   0.0893988   23.6969   0.0190184
    9        1    0.396697  0.000679602     74.8998    0.167982   22.3218   0.0316806
    9        1    0.437439  0.000678193     82.5186    0.108239    20.976   0.0179466
    9        1    0.478055  0.00067539     89.7336    0.124093   19.8479   0.0183268
    9        1    0.518461  0.000671225     97.2048     0.15681   18.8067   0.0206601
    9        1    0.558641  0.000668648     104.992    0.200926   17.8383   0.0236372
    9        1    0.598771   0.0006696     112.417    0.348768     17.01   0.0370357
    9        1    0.639061  0.000674079     119.886    0.223734    16.257   0.0214906
    9        2    0.169119  0.000690641     34.8477    0.102015   33.5892   0.0419862
    9        2    0.210558  0.000690641      41.057   0.0699854   31.1975   0.0252394
    9        2    0.252066  0.000693501     47.8563    0.111776   28.9128   0.0350297
    9        2     0.29359  0.000690778     54.8795   0.0868475   26.8621   0.0236537
    9        2    0.334983  0.000689151     61.9472   0.0986238    25.064   0.0234649
    9        2    0.376311  0.000688619     68.8556    0.152101   23.5223   0.0318999
    9        2     0.41764  0.000689183     76.2379    0.595718   22.0727    0.110192
    9        2    0.459034  0.000690842     82.9694    0.178826   20.9016   0.0294492
    9        2     0.50056  0.000693597     89.8849    0.164353   19.8256   0.0242252
    9        2    0.542276  0.000696798     97.5155    0.395267   18.7659   0.0519318
    9        2     0.58414  0.000698422     104.433    0.392115   17.9043   0.0465646
    9        2    0.626051  0.000698326     112.764    0.172552   16.9733   0.0182152
    9        2    0.667908  0.000696773     119.617    0.311863   16.2829   0.0300784
    9        3     0.19164  0.000750704     36.1929   0.0819387   33.0439    0.032773
    9        3    0.236682  0.000750704     42.5018    0.130207   30.6847   0.0455841
    9        3    0.281739  0.000750788       49.73    0.386904   28.3372    0.117077
    9        3    0.326779  0.000750571     57.2025   0.0794715    26.244   0.0206899
    9        3     0.37181  0.00075049     64.0673    0.173309   24.5699   0.0396642
    9        3    0.416841  0.000750545     71.4356    0.196651   22.9942   0.0394068
    9        3    0.461878  0.000750736     78.3912    0.159157   21.6836   0.0282756
    9        3    0.506931  0.000751063     86.1596    0.164096   20.3904   0.0256572
    9        3    0.552003  0.000751236     92.9024    0.448368   19.3917   0.0632003
    9        3    0.597066  0.000750742     100.321    0.156182   18.4059   0.0196507
    9        3     0.64208  0.000749572     108.178    0.219069   17.4724   0.0246431
    9        3    0.687018  0.000748709     115.861    0.352275   16.6535   0.0357135
    9        3    0.731975  0.000750329     123.016    0.416471   15.9628   0.0384683
   10        0    0.140066  0.000645461     28.0232    0.259625   35.4191    0.120946
   10        0    0.178794  0.000645461     33.9892    0.107714   32.7998   0.0443036
   10        0    0.217522  0.000645461     40.3203    0.137318   30.3694   0.0492537
   10        0     0.25626  0.000645767     46.5289     0.22362   28.2863   0.0704005
   10        0    0.294997  0.000645467     52.5072   0.0739202   26.5196   0.0205585
   10        0    0.333719  0.000645284     59.1136    0.100245    24.799   0.0244785
   10        0    0.372434  0.000645217     65.8408    0.228531   23.2587   0.0491928
   10        0    0.411147  0.000645266     71.5347    0.222629   22.0971   0.0432107
   10        0    0.449868  0.000645431     78.0064    0.119307   20.9122   0.0206638
   10        0    0.488601  0.000645713       84.31     0.21814   19.8775   0.0340237
   10        0    0.527355  0.00064607     90.5566    0.212396   18.9524   0.0299637
   10        0     0.56612  0.00064599     97.4227    0.239968    18.035   0.0304662
   10        0    0.604862  0.000645325      104.02    0.169824   17.2385   0.0195527
   10        0    0.643548  0.000644073     110.902    0.192911   16.4846   0.0201558
   10        1    0.180977  0.000697619     32.3257     0.12158   33.4937    0.051888
   10        1    0.222834  0.000697619     38.8498    0.248909   30.9045   0.0922725
   10        1    0.264705  0.00069785     45.1004    0.108562   28.7417   0.0351731
   10        1    0.306566  0.000697558     51.5256   0.0894172   26.7951   0.0253677
   10        1    0.348415  0.000697403     57.9259    0.227101   25.0921   0.0568197
   10        1    0.390257  0.000697383     64.4439    0.129836   23.5627    0.028658
   10        1    0.432103  0.000697499     71.1279    0.179007   22.1762    0.034983
   10        1     0.47396  0.000697752     77.0928    0.557162   21.0715   0.0983862
   10        1    0.515836  0.000698139     83.9431    0.550152   19.9348    0.086564
   10        1     0.55773  0.000698216     90.7942    0.202598    18.919   0.0284741
   10        1    0.599608  0.000697606     97.6306    0.290788   18.0087   0.0368167
   10        1     0.64143  0.000696311     103.783    0.348531   17.2658   0.0403194
   10        1    0.683167  0.000695248      111.16    0.345625   16.4577   0.0360202
   10        2    0.165631  0.000697626     29.7817    0.044477   34.6127   0.0206544
   10        2    0.207489  0.000697626      36.349    0.186863   31.8547   0.0731005
   10        2    0.249353  0.000698003     42.4447    0.276433   29.6256   0.0948955
   10        2    0.291223  0.000697657     48.2436    0.483424   27.7572    0.147269
   10        2    0.333075  0.000697449     54.8691    0.215921   25.8785   0.0573653
   10        2    0.374919  0.000697377     61.0466     0.14851   24.3361   0.0349552
   10        2    0.416763  0.000697441     67.4712    0.337983   22.9137   0.0706728
   10        2    0.458615  0.000697643     73.5903    0.273756   21.7061   0.0512561
   10        2    0.500483  0.000697981     79.7784    0.196854   20.6102   0.0331038
   10        2    0.542373  0.000698267     86.2419     0.42396   19.5814   0.0641873
   10        2    0.584261  0.000697909     92.5351    0.487071    18.678   0.0667664
   10        2    0.626109  0.000696866     99.5065    0.234579    17.775   0.0288665
   10        2    0.667875  0.000695374     105.027    0.492364   17.1235   0.0560044
   10        2    0.709598  0.000695858     111.985     0.79226   16.3725   0.0818893
   10        3    0.155019  0.000704739     30.1886    0.101112   34.4301   0.0445543
   10        3    0.197303  0.000704739     36.9077    0.219732   31.6379   0.0849489
   10        3    0.239588  0.000705026     43.6245    0.336205   29.2268    0.112628
   10        3    0.281883  0.000704797     51.1891    0.335337   26.8908   0.0960307
   10        3    0.324166  0.000704652     57.6438    0.154133   25.1627   0.0387454
   10        3    0.366443  0.000704592     64.5265    0.337718   23.5445   0.0745727
   10        3    0.408719  0.000704617     71.8412    0.190774   22.0379   0.0368126
   10        3    0.450998  0.000704727     78.7943    0.180005   20.7768   0.0307739
   10        3    0.493287  0.000704923      86.177    0.268411   19.5912   0.0406284
   10        3     0.53559  0.000705134     93.7474    0.673397    18.514   0.0907214
   10        3    0.577895  0.000704974     99.4886     1.42656   17.7772    0.177169
   10        3    0.620178  0.000704379     107.781    0.440016   16.8175   0.0481084
   10        3    0.662413  0.000703412     114.783    0.770814   16.0902   0.0766746
   11        0    0.200133  0.000704732     40.9542    0.130351   30.4792   0.0464366
   11        0    0.242419  0.000705057     48.2308   0.0945989   28.0791   0.0289329
   11        0    0.284713  0.000704786     55.0163    0.118432   26.1422   0.0316001
   11        0    0.326995  0.000704619      62.724    0.321361   24.2344   0.0740494
   11        0     0.36927  0.000704554     70.0523    0.276038   22.6601   0.0555664
   11        0    0.411544  0.000704594     77.0708    0.580483   21.3347    0.103578
   11        0    0.453823  0.000704737     84.7322    0.211714   20.0586    0.033131
   11        0    0.496114  0.000704983     93.1127     0.41322   18.8334   0.0567014
   11        0    0.538422  0.000705228     100.226    0.463405   17.9112   0.0571334
   11        0    0.580731  0.000705001     107.501    0.585407   17.0629     0.06504
   11        0    0.623012  0.000704246     114.497    0.589686   16.3252   0.0594783
   11        1    0.194643  0.000750696     37.8532     2.25661   31.6198    0.879416
   11        1    0.239698  0.000756774     45.3997    0.244316   28.9698   0.0793457
   11        1     0.28497  0.000752325     53.1232    0.261283   26.6563   0.0724916
   11        1    0.329996  0.000748601     60.7976    0.331122   24.6851   0.0791413
   11        1     0.37482   0.0007456     67.6828    0.439181   23.1462   0.0924135
   11        1    0.419485  0.000743323     75.5477    0.290236   21.6087   0.0530341
   11        1    0.464035  0.000741769     81.9163     3.27247   20.5088    0.550343
   11        1    0.508513  0.000740939     90.8281     0.22633   19.1515   0.0321332
   11        1    0.552967  0.000741116     98.3841     1.03471   18.1406    0.131669
   11        1    0.597475  0.000742743     106.327    0.565935   17.1938   0.0639218
   11        1    0.642123  0.000745826     114.796    0.766831   16.2953   0.0771276
   11        2     0.18191  0.000639483      36.435    0.166199   32.1675   0.0652924
   11        2    0.220279  0.000639483     42.7765    0.138773   29.8433   0.0475689
   11        2    0.258479  0.000635391     49.1006    0.148461   27.8157   0.0446244
   11        2    0.296715  0.000639096     54.9117    0.143331   26.1701   0.0383344
   11        2    0.335151  0.000642001     60.9472    0.335624   24.6495   0.0799951
   11        2    0.373737  0.000644106     67.9929    0.461587   23.0814   0.0965982
   11        2    0.412426  0.000645411     74.1605    0.268199   21.8646   0.0501946
   11        2     0.45117  0.000645917     80.5979    0.783598   20.7269    0.131921
   11        2     0.48992  0.000645622     87.4182    0.991913    19.648    0.149563
   11        2     0.52863  0.000644671     92.2543     1.21236   18.9516    0.169641
   11        2      0.5673  0.000644537     101.271    0.286878   17.7837   0.0347855
   11        2    0.644795  0.000647876     112.959    0.730315   16.4814   0.0752922
   11        2    0.683752  0.000650577     118.578     1.14191   15.9263    0.109468
   11        3    0.144699  0.000697619      29.607    0.222332   35.0565    0.101378
   11        3    0.186556  0.000697619     35.8896   0.0790215   32.3826   0.0313758
   11        3    0.228413  0.000697619     42.3415    0.109639   29.9929   0.0379158
   11        3    0.270611  0.000702076     48.9034    0.259243    27.875    0.078329
   11        3    0.312549  0.000696099     56.0744    0.534054   25.8631    0.140137
   11        3    0.354186  0.000692027     63.3708    0.462172   24.0867    0.105348
   11        3    0.395634  0.000689861     69.0304    0.362874   22.8672   0.0744609
   11        3    0.437008   0.0006896     76.1688    0.225735   21.4961   0.0407838
   11        3    0.478423  0.000691245     83.2548    0.355958   20.2922   0.0571352
   11        3    0.519993  0.000694754     89.9139    0.716124    19.282    0.103545
   11        3    0.561776  0.000697731     97.4248    0.354596   18.2626   0.0455417
   11        3     0.60368  0.00069877     103.243    0.324678   17.5485   0.0382644
   11        3    0.645589  0.000697873     112.576    0.446909   16.5208   0.0462268
