      *tel    numcsi               CsI V           err CsI V        energy (MeV)   err Energy (MeV)
         0         0            0.321186         3.40567e-05             61.3981            0.138781
         0         0            0.321044         2.54663e-05             61.2844            0.138731
         0         0            0.320534         3.06479e-05             61.1666             0.13867
         0         0            0.318836         3.36691e-05             61.0446            0.138588
         0         1            0.318604         2.36423e-05             61.3981            0.138781
         0         1            0.318387         2.52592e-05             61.3075            0.138734
         0         1            0.318381         2.93936e-05             61.2142            0.138686
         0         1            0.317523         3.23169e-05             61.1183            0.138645
         0         2            0.333018         4.37062e-05             60.8411            0.138499
         0         2            0.332472         5.04115e-05             60.7354            0.138432
         0         2            0.331884          5.4927e-05             60.6273            0.138374
         0         2            0.330786         6.42855e-05             60.5166            0.138314
         0         3            0.323759         5.77665e-05             60.8411            0.138499
         0         3            0.323269         5.17997e-05             60.7086            0.138418
         0         3             0.32262         5.67878e-05             60.5722            0.138344
         0         3            0.321476         7.07428e-05             60.4319            0.138256
         1         1            0.322385         5.68761e-05              61.603            0.138813
         1         1            0.322883         2.64839e-05             61.4743            0.138756
         1         1            0.322304         2.66138e-05             61.3394            0.138678
         1         1            0.321736         3.61073e-05             61.1985            0.138614
         1         2            0.329224         5.24678e-05              62.005            0.139011
         1         2            0.329688         1.78705e-05             61.8796            0.138951
         1         2            0.329013         1.80625e-05             61.7456            0.138892
         1         2            0.328331         2.64414e-05              61.603            0.138813
         1         3            0.317661         2.84289e-05             62.1536            0.139087
         1         3            0.317186         1.35379e-05             62.0562            0.139041
         1         3            0.316554         1.37142e-05             61.9523            0.138986
         1         3            0.315535         1.60974e-05             61.8421            0.138932
         2         1            0.300242         0.000154992             60.8364            0.138326
         2         1            0.300074           7.762e-05             60.6467            0.138213
         2         1            0.298961         6.11009e-05             60.4494            0.138105
         2         1            0.297919         9.80995e-05             60.2446            0.138005
         2         2            0.324565         0.000112348             61.2164             0.13851
         2         2            0.324384         4.55111e-05             61.0436            0.138427
         2         2            0.323462         4.24464e-05             60.8628             0.13832
         2         2            0.322325         7.56763e-05             60.6743            0.138239
         2         3            0.315116         6.66496e-05             61.6025            0.138712
         2         3            0.315127         2.63155e-05             61.4494            0.138641
         2         3            0.314269         2.46739e-05             61.2881            0.138557
         2         3            0.313431         4.70122e-05             61.1186            0.138458
         3         0            0.319296         0.000142391             60.8968            0.138331
         3         0            0.319139         5.95973e-05             60.7094            0.138229
         3         0            0.318379         5.91338e-05             60.5143            0.138111
         3         0            0.317725         9.52394e-05             60.3116            0.138011
         3         1            0.327584         0.000182641             60.5143            0.138111
         3         1            0.326852         8.80081e-05             60.3116            0.138011
         3         1             0.32541         8.59597e-05             60.1015            0.137908
         3         1            0.324311         0.000147015              59.884            0.137775
         3         2            0.227427         0.000632324              59.978            0.137813
         3         2            0.226596         8.85159e-05             59.7564            0.137706
         3         2            0.225008         0.000110863             59.5276            0.137581
         3         2            0.223748         0.000128605             59.2916            0.137472
         3         3            0.323317         0.000222073              60.341            0.138039
         3         3            0.322743         8.28126e-05             60.1623            0.137928
         3         3            0.321279         8.90319e-05              59.978            0.137813
         3         3            0.320412         9.93007e-05             59.7886            0.137738
         4         0             1.39598         3.49099e-05               61.37            0.138677
         4         0             1.39566         3.10771e-05             61.2538            0.138616
         4         0             1.39536         3.00888e-05             61.1335            0.138544
         4         0             1.39487         3.60767e-05             61.0093            0.138487
         4         1               0.299         4.92817e-05             61.2301            0.138604
         4         1            0.298455         3.27121e-05             61.0843            0.138518
         4         1            0.297945         3.61513e-05             60.9327            0.138447
         4         1            0.297128         4.63863e-05             60.7753            0.138362
         4         2            0.319703         9.27211e-05             60.6672            0.138303
         4         2            0.319112         6.50262e-05             60.5285            0.138217
         4         2            0.318339         7.00474e-05              60.386            0.138162
         4         2             0.31729         8.65432e-05             60.2395            0.138057
         5         0            0.319565         2.73916e-05             62.7392            0.139302
         5         0            0.319651         9.56948e-06             62.6921            0.139282
         5         0            0.318753         8.14059e-06             62.6358            0.139261
         5         0            0.317706         1.13995e-05             62.5703            0.139232
         5         1            0.376028         3.23962e-05             62.5703            0.139232
         5         1            0.375844           1.198e-05             62.5069            0.139201
         5         1            0.374859         1.15546e-05             62.4368            0.139169
         5         1            0.373689          1.2047e-05             62.3601            0.139138
         5         2            0.393525         1.18922e-05             62.5803            0.139236
         5         2            0.393111         1.19293e-05             62.5395            0.139215
         5         2            0.392824         1.18035e-05             62.4957            0.139199
         5         2            0.391526         1.26666e-05              62.449            0.139179
         5         3            0.560416         1.48135e-05             62.7565             0.13931
         5         3            0.560275          1.4304e-05             62.7267            0.139297
         5         3            0.560524         1.44087e-05             62.6921            0.139282
         5         3            0.559389         1.50373e-05             62.6529            0.139268
         6         0            0.296855         1.77647e-05             62.1154            0.138939
         6         0            0.296378         1.29099e-05             62.0294            0.138892
         6         0            0.295875         1.41426e-05              61.939            0.138848
         6         0            0.294682         1.63783e-05             61.8441            0.138794
         6         1            0.321751         3.19221e-05             61.7041            0.138731
         6         1            0.321305         2.25942e-05             61.5991            0.138685
         6         1            0.320876         2.49139e-05             61.4897            0.138621
         6         1            0.319887         2.85075e-05             61.3761            0.138571
         6         2           0.0218936         1.89933e-05             61.7247            0.138748
         6         2           0.0213216          1.9927e-05             61.6416            0.138699
         6         2           0.0208396         2.22597e-05             61.5558            0.138647
         6         2           0.0202233         2.20065e-05             61.4673            0.138609
         6         3            0.297483         1.22521e-05             62.1485            0.138943
         6         3            0.297398         1.26403e-05             62.0815            0.138917
         6         3            0.297268         1.35734e-05             62.0117            0.138883
         6         3            0.296938         1.38928e-05              61.939            0.138848
         7         0            0.299434         7.93309e-05             60.9163            0.138186
         7         0            0.299264         5.64881e-05             60.7817            0.138102
         7         0            0.298693         6.37691e-05             60.6432            0.138014
         7         0             0.29788          7.4552e-05             60.5009            0.137959
         7         1             0.31601          0.00012898             60.2652            0.137803
         7         1            0.315306         0.000113282              60.113            0.137732
         7         1            0.314713         0.000101255             59.9571            0.137645
         7         1            0.313751         0.000121997             59.7974            0.137557
         7         2            0.305481         0.000118872             60.2952            0.137833
         7         2            0.304814         0.000117019             60.1744            0.137779
         7         2            0.304262         0.000125331              60.051            0.137684
         7         2            0.303108         0.000161196             59.9254            0.137628
         7         3            0.314103         6.66962e-05             60.9427            0.138179
         7         3            0.314009         6.91042e-05             60.8089            0.138106
         7         3            0.313178         8.50472e-05             60.6712            0.138041
         7         3            0.312058         0.000106227             60.5297            0.137963
         8         0            0.730386         2.57791e-05             62.4235             0.13927
         8         0            0.730608         1.05434e-05             62.3372            0.139239
         8         0            0.730405         8.77134e-06             62.2419            0.139197
         8         0            0.730279         1.27115e-05             62.1376            0.139138
         8         1            0.329231         2.14937e-05             62.5598             0.13933
         8         1            0.329602         9.16939e-06             62.5008            0.139308
         8         1            0.329315         8.03945e-06             62.4352            0.139283
         8         1            0.328793         8.43243e-06             62.3628            0.139247
         8         2            0.321028         2.25613e-05             62.3108            0.139223
         8         2            0.320742         1.03063e-05             62.2275            0.139185
         8         2            0.320319         1.02293e-05             62.1376            0.139138
         8         2            0.319644         1.18208e-05             62.0412            0.139098
         8         3            0.312438         5.92142e-05             62.1983            0.139172
         8         3            0.314036         1.41824e-05             62.0902            0.139116
         8         3            0.313267         1.23721e-05             61.9734            0.139066
         8         3            0.312412         1.57329e-05             61.8479            0.139006
         9         0            0.304413         9.60797e-06             62.5887            0.139341
         9         0            0.304493         7.12758e-06             62.5429            0.139322
         9         0            0.304284         7.73058e-06             62.4923            0.139296
         9         0            0.303547         7.54814e-06             62.4371            0.139279
         9         1            0.302575         2.05293e-05             62.5525            0.139329
         9         1            0.302295         8.75528e-06             62.4817            0.139299
         9         1            0.301844         7.57733e-06             62.4018             0.13926
         9         1            0.301061         1.05185e-05             62.3128             0.13922
         9         2            0.315603         1.52594e-05             62.2858            0.139212
         9         2            0.314987         1.00861e-05             62.2002            0.139168
         9         2            0.314551         1.12942e-05             62.1081            0.139126
         9         2            0.314045         1.25091e-05             62.0096            0.139079
         9         3            0.338411         1.14044e-05             62.3392            0.139236
         9         3               0.338         9.75973e-06              62.272            0.139201
         9         3            0.337717         1.08118e-05             62.2002            0.139168
         9         3            0.336797          1.1524e-05              62.124            0.139138
        10         0            0.315018         2.53642e-05             62.3996            0.138981
        10         0            0.315498         1.11207e-05             62.2981            0.138929
        10         0            0.315334         1.00464e-05             62.1877            0.138876
        10         0            0.314507         1.71033e-05             62.0686            0.138824
        10         1            0.334783         3.54661e-05             62.1035            0.138841
        10         1            0.334684         1.58157e-05             61.9967            0.138789
        10         1            0.334152         1.46445e-05             61.8834            0.138726
        10         1            0.333507         1.85524e-05             61.7641             0.13868
        10         2            0.339222         5.68444e-05              61.864            0.138723
        10         2            0.339485         2.27039e-05             61.7228            0.138652
        10         2            0.338363         2.02406e-05             61.5734            0.138583
        10         2            0.337384         3.33477e-05             61.4157            0.138502
        10         3            0.311957         3.47141e-05             62.1546            0.138871
        10         3            0.311898         1.42306e-05              62.033            0.138813
        10         3            0.310953         1.29333e-05             61.9028            0.138749
        10         3            0.310447         2.08796e-05             61.7641             0.13868
        11         0            0.299059         9.36151e-05             61.4221            0.138586
        11         0            0.298267         3.14065e-05             61.2823            0.138513
        11         0             0.29779         3.21646e-05             61.1366            0.138426
        11         0              0.2971         4.16181e-05              60.985            0.138355
        11         1             0.31168         0.000117631             60.8808            0.138288
        11         1            0.311373         5.38888e-05             60.7198            0.138211
        11         1            0.310901         5.97799e-05              60.553            0.138131
        11         1            0.310038         7.68289e-05             60.3806            0.138013
        11         2            0.311138         0.000158146              60.637            0.138166
        11         2            0.310302         7.59976e-05             60.4675            0.138072
        11         2            0.309405          7.7378e-05             60.2924            0.137964
        11         2            0.308716         8.21562e-05             60.1119             0.13789
        11         3            0.323316          9.1591e-05             61.1613            0.138458
        11         3            0.323058         4.28369e-05             61.0107            0.138368
        11         3            0.322153         4.11273e-05             60.8544            0.138294
        11         3            0.321358         5.88168e-05             60.6924            0.138207
